A_X[mg]	A_Y[mg]	A_Z[mg]	G_X[dps]	G_Y[dps]	G_Z[dps]	
-222.955002	17.080000	1094.950073	2.668750	-6.094375	-4.195625
-196.908005	35.319000	1079.212036	-0.708750	-6.492500	-1.421875
-196.419998	27.389000	1055.239014	-1.211875	1.001875	2.476250
-219.417007	-6.588000	1084.946045	-4.130000	-0.796250	2.095625
-230.763000	26.474001	1087.691040	2.209375	-4.265625	-0.389375
-216.428009	16.409000	1115.323975	4.213125	-5.232500	-4.760000
-175.375000	13.420000	1056.581055	0.704375	1.036875	-1.986250
-155.244995	24.644001	945.500000	0.481250	4.042500	-4.904375
-172.020004	16.042999	788.242004	-1.251250	10.591875	-6.265000
-181.962997	4.941000	606.035034	0.861875	22.334375	-2.279375
-243.512009	-5.795000	605.608032	3.123750	8.268750	-3.338125
-244.365997	-30.805000	637.205994	5.858125	-17.263750	5.796875
-105.529999	53.497002	652.333984	2.156875	-24.167500	4.795000
-145.363007	8.052000	765.854980	6.431250	-25.720625	0.188125
-30.561001	26.657000	813.617981	5.932500	-31.500000	-9.751875
-90.524002	81.069000	903.531982	19.114374	-25.900000	-15.833125
49.532001	78.445999	957.028992	7.065625	-40.009377	-1.553125
-36.417000	43.920002	1103.916992	6.041875	-31.381874	12.088125
33.244999	74.054001	1132.281982	2.126250	-20.645624	-1.763125
17.080000	-3.538000	1169.065063	7.363125	-28.748125	-0.840000
-30.866001	8.296000	1215.364014	32.576248	-24.749374	-13.868750
-10.187000	168.298996	1251.536987	20.286875	-47.355000	-26.245625
44.713001	86.620003	1334.740967	16.878750	-65.751877	-4.160625
101.748001	107.909004	1637.545044	0.599375	-50.404373	-37.261875
89.121002	115.595001	1382.442993	-12.814375	-40.455624	-39.624374
123.525002	302.071991	1410.686035	-30.283751	-27.868750	-2.515625
114.252998	-16.775000	1368.046997	-30.406250	-33.040001	7.087500
111.386002	3.721000	1325.468994	-7.494375	-63.625626	7.875000
266.692017	66.246002	1445.700073	9.401875	-101.373123	27.562500
354.776001	-19.703001	1262.151001	21.875000	-73.801872	21.848749
309.514008	76.799004	1388.482056	18.458124	-67.794998	6.623750
381.738007	95.953003	1238.117065	13.011250	-48.650002	9.323125
326.045013	75.884003	1171.932007	4.038125	-33.026875	8.828750
353.800018	69.723000	1117.214966	-4.060000	-29.316875	4.659375
356.300995	41.236000	1099.952026	-4.016250	-29.452499	0.647500
383.690002	48.373001	1112.761963	-5.495000	-30.152500	-5.271875
418.154999	34.647999	1158.024048	0.665000	-24.639999	-5.586875
447.007996	26.779001	1163.331055	5.223750	-19.792500	-8.583750
-147.619995	-4.575000	1099.586060	2.397500	-10.718750	-1.054375
-178.363998	34.342999	1114.225952	4.138750	-7.223125	-2.139375
-165.675995	19.764000	1116.177979	3.539375	-3.202500	-3.653125
-166.652008	40.564999	1107.088989	3.189375	-1.115625	-2.327500
-204.654999	24.888000	1126.853027	0.507500	-0.573125	2.021250
-174.703995	38.063999	1082.384033	2.305625	0.039375	3.141250
-161.162003	33.916000	1003.328003	2.883125	2.340625	-0.376250
-100.894005	23.363001	868.213013	-0.752500	4.239375	-0.393750
-105.529999	54.046001	785.679993	-2.541875	5.446875	-1.159375
-141.154007	9.150001	719.067993	1.351875	5.438125	-4.165000
-173.240005	7.686000	783.117981	7.761250	-5.293750	3.364375
-179.156998	41.541000	773.419006	6.711250	-15.833125	-0.861875
-91.012001	-7.442000	831.186035	9.384375	-22.347500	5.573750
-216.550003	99.186005	891.332031	-2.476250	-27.886250	-7.301875
-84.973000	-26.230000	950.502014	-5.123125	-27.842501	-4.361875
-77.165001	162.686996	1067.438965	-8.163750	-33.910625	-5.976250
-80.153999	-21.837999	1157.047974	-14.787500	-30.646875	-13.391875
7.015000	86.986000	1247.450073	-3.097500	-37.086876	2.432500
3.294000	-1.159000	1333.399048	-12.604375	-48.811874	-15.264375
102.785004	14.152000	1189.255981	-7.210000	-44.126251	-11.344375
78.873001	-50.630001	1201.822021	-2.450000	-31.692499	-6.418125
137.981995	29.829000	1168.515991	-2.450000	-12.022500	-3.062500
99.002998	111.446999	1057.984009	12.411875	-12.022500	-3.062500
99.002998	111.446999	1103.245972	20.076876	22.894375	3.941875
9.577000	-37.758999	1103.245972	15.758750	39.528126	14.612500
32.879002	76.432999	968.984985	17.618126	56.595001	18.458124
-133.041000	-96.989998	1082.811035	12.184375	40.687500	-12.661250
-107.482002	15.677000	1113.250000	33.271873	15.023750	0.363125
-164.272995	177.693008	1207.677979	37.458752	-26.556250	-2.905000
47.031002	6.100000	1214.937012	42.157501	-101.285622	-9.795625
267.729004	471.286011	1415.687988	14.271250	-104.273750	7.245000
127.124001	65.636002	1344.744995	-5.674375	-61.420624	-5.035625
180.742996	230.275009	1320.711060	-5.521250	-38.456249	-5.236875
162.138000	210.816010	1243.180054	-19.993750	-21.765625	2.231250
80.641998	78.750999	1194.135986	-20.899376	-23.690624	9.401875
146.460999	166.225006	1196.820068	-20.667500	-43.058750	10.316250
262.117004	67.527000	1147.410034	-16.148125	-62.794376	11.633125
331.778992	93.940002	1181.020996	-12.110000	-69.772499	6.212500
-234.727997	71.431000	970.327026	-2.480625	-1.640625	-3.854375
-206.790009	21.106001	950.135986	1.951250	-4.668125	-3.320625
-269.864014	44.347000	1011.867981	1.780625	-7.647500	-6.986875
-252.296005	50.325001	1036.572998	1.579375	-17.272499	-3.154375
-146.522003	41.174999	1034.437988	3.653125	-15.767500	-1.645000
-110.227005	34.221001	1002.230042	1.505000	-10.797500	-5.236875
-166.102997	36.234001	1028.338013	-0.560000	-11.755625	-2.051875
-141.337006	36.844002	1040.537964	6.588750	-14.778750	-1.728125
-191.906006	64.660004	1090.740967	6.129375	-11.650625	-3.552500
-162.138000	60.633999	1068.536987	8.666875	-16.703751	4.195625
-125.843002	67.892998	1109.162964	7.756875	-15.246875	4.095000
-69.479004	50.142002	1042.124023	-2.213750	-4.856250	-1.522500
-154.878998	55.327000	1057.618042	-4.331250	-9.948750	1.487500
-45.750000	45.811001	989.968994	-2.686250	-15.028125	-0.748125
-126.026001	64.721001	978.135010	-5.075000	-4.480000	-2.288125
-63.684002	41.785000	1011.746033	-5.993750	-26.031250	-1.058750
-40.443001	51.179001	1028.947998	-6.873125	-34.308750	2.178750
-104.188004	45.872002	1084.885010	-9.327500	-34.829376	-7.021875
43.980999	15.494000	1051.395996	-6.969375	-43.001877	-10.171875
53.008999	10.553000	1114.348022	-7.227500	-27.562500	0.612500
7.442000	46.909000	1069.696045	-1.653750	-23.585625	-7.507500
46.421001	42.334000	1057.068970	0.319375	-28.892500	-4.738125
-16.469999	28.182001	1096.230957	-3.031875	-30.086876	-2.318750
106.994003	9.638000	1066.645996	-5.346250	-44.668751	-5.538750
147.803009	10.736000	1091.838989	-4.803750	-40.897499	1.636250
184.281006	-4.148000	1065.974976	-0.844375	-44.301250	-2.428125
212.645996	33.367001	1059.265015	-4.051250	-35.730625	-3.976875
235.154999	20.679001	1089.459961	-10.867500	-44.970627	-3.333750
301.766998	6.100000	1165.709961	-7.818125	-28.354376	-0.914375
335.195007	39.833000	1121.973022	-22.211876	-21.643126	-0.070000
211.425995	-96.319000	1282.890991	-16.878750	-23.992500	-5.696250
341.050995	7.930000	1191.573975	-13.825000	-21.017500	-8.413125
295.484009	-61.549000	1199.687012	0.420000	-32.729374	1.308125
372.832001	-56.059002	1224.818970	12.551875	-30.126249	-6.693750
331.901001	-78.628998	1156.499023	12.188750	-42.030624	-12.783750
411.567017	-88.023003	1284.110962	22.413124	-49.520626	-22.798124
437.431000	44.713001	1240.678955	32.856251	-41.903751	-10.985625
351.299011	78.507004	1186.266968	23.301250	-39.453751	1.312500
-241.438004	18.605000	1071.526001	1.430625	-1.588125	-3.447500
-286.578003	22.753000	1049.870972	0.761250	2.926875	-2.677500
-298.351013	-4.819000	1090.619019	-0.844375	-2.769375	-0.529375
-252.173996	21.045000	1080.493042	-4.256875	-3.390625	-1.382500
-274.317017	-9.516000	1082.688965	-3.819375	-1.334375	-1.338750
-215.695999	-11.712000	993.507019	0.875000	-1.973125	-0.704375
-106.262001	-22.509001	781.226990	6.090000	6.991250	1.981875
-97.417000	2.501000	521.000977	8.837500	14.188125	0.647500
-130.052002	-16.348000	440.420013	3.915625	11.318125	-1.159375
-194.346008	54.473000	499.589996	9.397500	-4.025000	5.858125
-183.975998	28.243000	571.814026	10.753750	-17.132500	-4.711875
-199.714005	34.465000	710.650024	-5.000625	-35.573124	-3.246250
-160.125000	70.333000	878.522034	-0.691250	-43.500626	-8.942500
-25.864000	-72.223999	944.585022	-5.306875	-34.580002	-25.545626
-86.253998	197.578995	1020.530029	-22.758751	-55.085625	-12.639375
127.978004	32.635002	1026.324951	-33.035625	-70.835625	10.045000
93.330002	-63.440002	1148.995972	-28.091875	-47.985001	-3.552500
273.097015	-19.276001	1212.557983	-14.945000	-44.939999	-10.145625
106.689003	-151.462997	1277.889038	-5.635000	-46.816875	-13.580000
115.107002	-124.683998	1487.973022	13.728750	-84.284378	-23.651251
261.506989	37.881001	1549.521973	10.745000	-116.729378	-12.503750
333.975006	-12.444000	1586.061035	24.053749	-106.750000	-0.336875
357.032990	-26.596001	1682.685059	17.823750	-75.355003	-0.962500
269.924988	40.564999	1509.018066	22.045626	-54.048752	4.878125
161.406006	-13.603000	1456.863037	7.481250	-72.625000	3.963750
350.200989	-112.667000	1420.812012	9.660000	-74.554375	-2.200625
378.566010	-68.807999	1348.649048	14.231875	-58.817501	-7.109375
378.200012	1.647000	1311.438965	10.635625	-50.189999	-5.486250
389.912018	-39.833000	1265.750000	6.505625	-25.921875	0.476875
383.873016	10.431000	1178.703003	1.793750	-14.428750	4.488750
445.910004	18.239000	1116.544067	3.106250	-7.511875	5.394375
449.386993	7.503000	1062.802979	0.770000	3.325000	2.537500
448.838013	-0.183000	1019.981018	-1.693125	2.047500	-3.071250
491.782013	12.688000	1003.694031	2.800000	2.957500	-3.574375
481.717010	8.784000	1002.108032	3.701250	3.128125	-1.478750
491.355011	17.141001	1006.561035	2.428125	-0.214375	-1.058750
498.553009	21.289000	1001.192993	4.016250	3.784375	-1.295000
464.576019	30.316999	990.579041	4.834375	0.866250	-2.051875
-198.250000	-27.816000	1139.906982	0.511875	-4.388125	-1.929375
-176.960999	-27.816000	1131.000977	1.793750	-4.388125	-1.929375
-176.960999	-27.816000	1131.000977	0.796250	-3.486875	0.240625
-161.040009	-44.408001	1124.779053	-0.888125	-0.875000	0.730625
-185.988998	-29.524000	1090.802002	0.135625	4.970000	-0.026250
-211.365005	-19.947001	1090.924072	1.163750	1.225000	-1.413125
-228.384003	-5.002000	1057.739990	1.653750	1.220625	0.564375
-221.003006	-0.915000	998.509033	0.586250	2.804375	0.170625
-144.570007	-1.342000	864.309021	0.240625	4.738125	-1.150625
-116.510002	25.254000	708.942017	1.203125	8.207500	-3.268125
-183.731995	-30.927000	723.093994	3.928750	3.473750	-2.170000
-244.610001	15.860001	829.112000	3.740625	-13.466250	-4.786250
-218.624008	-3.050000	929.335022	-2.366875	-31.657499	-8.102500
-211.975006	-12.017000	1032.364014	-3.775625	-35.411251	-5.543125
-124.988998	-4.087000	1049.810059	-6.195000	-25.340000	-9.655625
-111.630005	-43.493000	1113.128052	0.560000	-29.596874	-6.251875
-28.243000	-35.319000	1066.401978	2.559375	-35.157501	-6.527500
24.583000	-13.603000	1051.518066	4.838750	-23.401875	-7.805000
-38.552002	-20.923000	994.239014	4.768750	-22.680000	-6.291250
-15.555000	-18.117001	1028.399048	7.175000	-24.858749	-2.082500
-54.107002	0.427000	1083.421021	8.229375	-33.709373	-5.543125
-20.862000	-16.592001	1078.723999	2.498125	-53.300625	-3.263750
60.573002	-16.226000	1156.072021	2.362500	-57.299374	-4.291875
89.548004	-25.925001	1144.909058	3.036250	-64.071877	-0.669375
197.762009	-44.896000	1174.005981	7.726250	-42.109375	-2.441250
157.807007	85.583000	1142.041992	12.626250	-21.284374	-2.353750
75.517998	-21.837999	1111.420044	2.699375	-26.840626	-6.650000
217.038010	11.773000	1080.920044	-0.385000	-27.711250	1.806875
170.068008	32.513000	1079.822021	-0.135625	-27.426874	-6.186250
313.967010	-82.167000	1262.456055	11.803750	-39.405624	-11.532500
243.207001	113.154999	1196.453979	19.180000	-36.588123	-11.917500
245.098007	16.348000	1218.841064	10.351250	-41.575626	-12.595625
371.246002	47.091999	1215.729980	5.875625	-35.266876	-9.467500
281.759003	110.531998	1329.373047	-5.783750	-35.398125	-5.241250
394.609009	31.964001	1262.089966	-2.323125	-34.361252	-8.194375
375.638000	104.005005	1219.451050	5.600000	-27.811874	1.911875
355.630005	61.183002	1227.259033	-1.758750	-23.008125	8.216250
374.845001	4.209000	1226.709961	-0.481250	-29.469999	6.308750
-130.235001	55.815002	913.353027	-1.811250	19.250000	1.868125
-174.154999	12.993000	903.226990	-1.653750	17.128124	5.674375
-130.906006	9.516000	934.885986	-1.894375	4.291875	-0.398125
-167.018005	32.513000	923.356995	1.968750	12.333125	-7.354375
-196.785995	4.331000	984.174011	-1.006250	3.548125	-3.696875
-145.973007	13.481000	900.054993	-3.605000	-4.125625	0.494375
-69.052002	16.896999	655.932983	-8.295000	14.354375	-7.647500
-168.542999	24.095001	587.613037	-15.920625	15.741250	-8.426250
-179.645004	16.531000	555.343994	-6.903750	-12.105625	-1.640625
-221.979004	18.666000	732.914978	7.367500	-25.125626	-6.982500
-60.207001	33.062000	793.000000	17.635626	-34.068127	-2.458750
19.276001	70.089005	822.402039	13.706875	-38.233124	11.116875
191.052002	-32.146999	686.677002	-5.232500	-19.849375	4.379375
66.368004	146.949005	700.890015	-9.213750	-1.820000	-2.891875
155.794006	-4.819000	902.190002	-21.402500	-19.315624	-10.766875
-32.085999	-52.826000	1183.948975	-28.258125	-37.375626	-6.300000
-16.592001	46.909000	1345.233032	-4.746875	-62.488125	-4.803750
44.285999	-84.729004	1477.359009	1.505000	-77.078751	-12.118750
167.139999	-76.311005	1554.280029	21.017500	-101.189377	9.638125
77.530998	57.522999	1475.712036	29.889999	-94.889374	16.751875
340.623993	-68.930000	1589.964966	20.396250	-55.706875	-8.592500
177.936996	104.005005	1527.683960	3.145625	-72.366875	-16.091249
323.971008	19.093000	1486.265015	7.096250	-56.923126	-8.347500
220.393005	-1.830000	1490.656982	4.672500	-35.853127	-4.545625
235.826004	22.875000	1417.578979	-1.561875	-47.801250	0.459375
301.035004	-2.623000	1332.422974	4.650625	-29.483126	12.026875
283.283997	-68.930000	1247.023071	4.235000	-27.317499	10.797500
336.781006	-11.712000	1203.591064	6.278125	-16.257500	2.393125
311.161011	-4.819000	1125.328003	5.845000	1.688750	-1.426250
310.123993	18.726999	1078.968018	0.223125	2.896250	-6.212500
344.101013	2.684000	1078.235962	0.271250	4.318125	-7.490000
348.005005	11.041000	1058.716064	-0.113750	3.316250	-7.861875
357.520996	41.114002	1075.186035	0.923125	-3.574375	-7.971250
385.886017	38.552002	1064.999023	0.796250	0.730625	-6.571250
338.306000	45.567001	1070.854980	1.260000	1.579375	-2.331875
372.161011	29.524000	1059.630981	-1.028125	0.730625	-0.411250
376.431000	32.146999	1063.656982	-1.028125	0.730625	1.010625
376.431000	25.315001	1070.123047	1.023750	1.876875	1.010625
-394.548004	-30.866001	1150.826050	-2.187500	7.017500	4.970000
-304.145996	-7.137000	1080.005005	-2.883125	8.264375	4.904375
-284.565002	30.316999	980.087036	-4.611250	6.820625	-5.451250
-289.688995	51.667000	900.481995	3.198125	-0.301875	-6.068125
-359.717010	46.177002	915.244019	7.568750	0.551250	0.958125
-322.751007	97.539001	779.153015	5.398750	6.330625	0.953750
-300.791016	42.395000	667.340027	8.172500	-2.003750	-5.040000
-253.272003	-32.939999	510.082001	0.472500	-5.976250	-4.602500
-220.210007	98.392998	448.716003	-15.903125	-2.156875	-8.063125
-181.962997	5.490000	471.468994	-18.007500	-11.615625	-8.238125
-190.380997	31.720001	592.309998	-14.266875	-14.945000	-11.615625
-221.796005	-5.551000	654.895996	-17.911249	-22.566250	-22.426250
-184.037003	-159.453995	735.354980	0.091875	-47.669998	-18.064375
-100.589005	99.674004	886.817993	25.685625	-46.361874	-17.333750
25.864000	-132.736008	1113.067017	22.395624	-36.172501	-15.141875
78.507004	71.065002	1189.500000	41.173126	-76.684998	-1.557500
63.074001	69.784004	1146.129028	21.888124	-92.789375	-12.915000
94.183998	8.174000	1266.604004	18.016251	-96.381248	1.277500
308.171997	164.089996	1306.192993	19.705000	-82.214996	-9.638125
151.524002	151.035995	1338.462036	-0.665000	-60.160625	14.761250
100.162003	33.855000	1645.657959	-10.049375	-87.876251	10.351250
314.394012	196.359009	1316.745972	1.312500	-62.536251	7.800625
88.754997	42.944000	1550.985962	-22.176874	-79.795624	46.125626
393.205994	20.434999	1577.338013	-15.645000	-108.832497	-2.861250
341.966003	111.996002	1221.219971	-9.568125	-58.231251	-28.656250
238.815002	-10.370000	1554.707031	15.666875	-54.455624	-10.128125
472.627991	52.948002	1291.492065	17.307501	-13.409375	-17.386250
293.714996	4.392000	1337.242065	-0.861875	-3.412500	-20.348125
436.821014	15.250000	1177.300049	6.400625	10.635625	-21.411249
333.975006	34.221001	1126.914062	20.930000	7.118125	-14.625625
375.149994	123.098000	1172.420044	16.799999	-9.143750	-9.178750
399.489014	85.583000	1128.011963	10.066875	-2.874375	-2.091250
354.287994	187.941010	1160.952026	-9.065000	-8.146250	-0.402500
372.770996	82.654999	1116.971069	-14.113750	3.408125	-0.371875
360.144012	38.735001	1069.086060	-3.211250	4.690000	-1.535625
345.015991	78.263000	1076.344971	-1.680000	1.483125	-4.935000
363.132996	91.377998	1112.701050	0.135625	0.393750	-2.288125
359.656006	110.471001	1065.303955	-3.202500	1.903125	0.752500
-507.580994	-94.000999	952.027039	0.945000	0.533750	-0.328125
-491.416016	-88.145004	925.796997	4.033750	-0.844375	2.550625
-494.100006	-117.363998	917.867004	4.558750	0.253750	1.478750
-491.110992	-69.662003	881.572021	0.896875	3.080000	-1.343125
-457.683014	-85.522003	846.192017	1.583750	-0.546875	-2.541875
-455.121002	-97.294998	834.053040	4.208750	-2.957500	-1.343125
-304.877991	-87.168999	711.992004	6.492500	9.222500	0.070000
-263.398010	-63.500999	630.984009	6.951875	8.706250	4.755625
-216.671997	-48.799999	577.731018	9.856875	1.036875	4.112500
-258.822998	-69.662003	574.864014	7.686875	7.525000	5.162500
-217.404007	-35.319000	585.843994	1.715000	-2.095625	-1.483125
-410.713013	-126.758003	616.588013	-1.601250	-34.479374	-8.246875
-309.087006	78.263000	689.788025	-0.721875	-39.046875	-22.588125
-381.677002	-171.897995	807.335022	-2.030000	-25.926250	-19.105625
-282.613007	73.321999	952.148987	-10.456250	-43.404373	-22.732500
-273.584991	-194.346008	1073.722046	-8.194375	-72.353752	-30.782499
-218.319000	-29.951000	1170.651001	14.835625	-67.339996	-1.338750
-307.135010	-52.764999	1200.968018	53.965626	-68.477501	-2.393125
-272.975006	-19.886000	1176.750977	51.533127	-64.356247	32.821251
-227.285995	12.322001	1286.734009	55.369999	-47.801250	41.072498
-220.027008	-6.954000	1328.579956	71.041252	-37.366875	18.256874
-125.538002	166.347000	1534.211060	32.873749	-88.563126	40.149376
28.059999	5.978000	1575.752075	26.884375	-66.473747	37.874374
-170.678009	182.328995	1526.586060	10.338125	-67.392502	-8.071875
-3.782000	85.888000	1517.375000	-7.358750	-88.541252	0.183750
5.917000	101.992004	1454.118042	-0.560000	-42.371876	6.260625
-82.777000	146.033997	1334.253052	-19.993750	-16.957500	-19.928125
-17.385000	26.779001	1314.062012	-30.143749	-12.648125	-16.165625
-4.514000	20.313000	1253.794067	-14.148750	-11.838750	-21.835625
16.409000	51.118000	1275.083008	-10.653125	-20.002501	-19.271875
57.950001	46.237999	1194.624023	1.513750	-10.583125	-4.357500
101.625999	41.846001	1157.353027	0.153125	-3.088750	-7.910000
78.750999	94.611000	1176.140991	-11.121250	-5.171250	-14.634375
151.402008	66.063004	1153.083008	-10.933125	1.820000	-6.956250
71.858002	-10.004000	1079.029053	-9.751875	1.006250	-10.071250
100.162003	36.355999	1117.214966	-2.992500	-8.531250	-8.137500
137.432999	46.177002	1075.003052	0.770000	-5.766250	-4.309375
108.092003	15.738000	1115.140991	-0.848750	-7.888125	0.910000
-411.018005	43.798000	1004.975037	-0.826875	-1.417500	-5.083750
-391.803009	22.387001	972.705994	-1.421875	-0.682500	-2.336250
-416.691010	38.186001	980.575012	-2.091250	-2.091250	0.507500
-377.285004	20.984001	907.619019	0.612500	-0.630000	-0.761250
-404.856995	32.939999	896.395020	2.218125	-2.314375	-1.789375
-343.917999	43.371002	811.848999	-0.420000	-4.694375	-2.590000
-198.067001	6.710000	639.036011	-3.823750	-4.042500	-3.377500
-159.270996	10.797000	610.000000	0.586250	-11.340000	-1.925000
-134.016998	5.185000	508.679016	3.736250	-16.340626	-8.850625
-291.824005	30.073000	597.556030	0.280000	-28.336876	-9.786875
-118.156998	13.908000	621.163025	-6.286875	-49.660625	-0.831250
-333.304016	-43.980999	745.541992	4.786250	-39.580624	-6.457500
-101.870003	95.403999	913.780029	12.971875	-28.455000	-21.166250
-231.738998	17.568001	1005.768005	23.445625	-37.913750	-17.128124
-207.949005	35.624001	1146.433960	3.810625	-78.014999	-21.546875
-55.510002	113.947998	1191.817993	-10.648750	-112.686874	-3.141250
-83.509003	163.906998	1066.768066	7.682500	-102.970001	8.478750
137.311005	93.147003	1181.509033	-7.809375	-57.500626	7.358750
12.810000	-16.836000	1432.341064	-3.005625	-32.046875	13.238750
5.185000	-13.725000	1288.442017	-1.159375	-52.810623	3.535000
77.287003	-16.104000	1504.869995	25.033751	-78.767502	2.034375
228.505997	52.399002	1359.506958	29.531250	-65.760628	10.206875
218.563004	161.650009	1726.910034	49.975624	-35.363125	10.688125
220.880997	218.867996	1557.696045	26.950001	-14.756875	9.655625
127.734001	124.318001	1460.828003	-0.118125	-10.889375	-8.146250
165.737000	127.917000	1367.375977	8.137500	-12.901875	-10.075625
134.078003	97.478004	1273.192017	-3.946250	-26.521250	-19.381250
174.520996	54.351002	1344.135010	-2.366875	-36.596874	-17.920000
187.757996	57.157001	1234.518066	6.689375	-29.496250	-13.916875
174.216003	88.694000	1192.977051	9.310000	-20.838125	-8.058750
157.014008	144.753006	1166.380981	9.205000	-13.711250	-1.023750
200.690002	143.106003	1157.109009	4.838750	-11.335625	-0.336875
234.667007	170.311996	1150.765015	3.815000	-4.025000	0.581875
229.848007	170.921997	1125.876953	1.448125	1.505000	2.366875
229.848007	153.720001	1103.428955	2.756250	0.520625	2.476250
256.444000	171.348999	1103.124023	4.904375	2.003750	2.975000
261.873016	171.654007	1071.648071	4.401250	6.278125	3.430000
273.890015	169.335999	1073.355957	1.316875	3.460625	1.583750
-504.226013	139.568008	1001.376038	-1.929375	1.767500	-2.905000
-473.726013	119.804001	968.557983	-0.542500	11.440625	-3.110625
-500.871002	125.477005	968.070007	-1.561875	14.608125	0.201250
-485.925995	121.756004	945.072998	-2.358125	3.403750	0.507500
-512.949036	102.723999	931.775024	-1.382500	-3.775625	-1.015000
-478.545013	108.275002	904.080994	-1.124375	-2.830625	-1.675625
-403.209991	107.604004	810.690002	-2.791250	0.721875	-3.876250
-311.832001	86.193001	678.747009	-2.638125	1.898750	-7.971250
-245.037003	75.334999	571.325989	-0.245000	8.776250	-11.921875
-263.764008	58.316002	485.377014	4.628750	10.521875	-15.238125
-334.707001	52.399002	528.504028	4.453750	-5.267500	-6.671875
-341.295013	76.189003	586.210022	9.393125	-28.236250	-3.688125
-412.420990	121.756004	687.531006	5.096875	-49.682499	-2.992500
-387.654999	46.116001	853.145996	-1.006250	-75.643753	-2.940000
-409.981018	140.056000	995.031982	-1.452500	-71.929375	-18.453751
-237.778000	94.793999	1121.729004	-10.491250	-61.564999	-11.322500
-228.079010	119.255005	1274.534058	-15.911875	-72.130623	-10.180625
-88.694000	22.326000	1341.207031	-1.019375	-57.920624	-13.496875
-102.358002	133.895004	1333.886963	9.016875	-41.741875	-19.245625
-160.490997	-50.386002	1326.445068	11.471250	-43.198750	-13.510000
-109.250999	55.510002	1166.686035	24.276875	-26.486250	-18.173750
-82.594002	71.858002	1199.138062	27.020000	-1.102500	-16.165625
-333.182007	128.527008	1199.015991	16.069374	8.155000	-18.357500
-193.858002	195.992996	1086.776001	17.307501	-3.880625	2.655625
-199.775009	272.059998	1147.654053	-6.418125	-39.589375	25.318125
-131.699005	95.831001	1122.704956	-30.988125	-49.761250	40.849377
-31.903000	180.742996	1168.760010	-52.705624	-57.321251	40.363750
10.614000	-25.620001	1359.994995	-23.253124	-63.144375	34.107498
50.813000	54.229000	1267.458008	-4.790625	-59.399376	37.651249
36.234001	22.204000	1368.901001	-2.668750	-75.110001	37.038750
188.856003	98.087997	1297.531006	15.907500	-78.946877	35.240623
142.007996	34.770000	1362.801025	9.568125	-69.133751	32.619999
196.847000	92.232002	1294.359009	5.840625	-53.007500	21.940624
190.869003	86.803001	1235.555054	-8.343125	-35.323750	9.069375
212.707001	72.956001	1194.807007	-14.459375	-27.803125	0.135625
220.759003	75.822998	1154.425049	-12.674375	-19.490625	-2.314375
242.109009	36.904999	1171.443970	-14.148750	-17.727501	-7.039375
251.259003	24.034000	1158.145996	-7.153125	-15.684375	-9.979375
-300.119995	2.623000	1026.324951	-1.080625	-1.365000	-0.275625
-305.000000	19.886000	964.166016	-3.145625	-0.161875	-1.929375
-267.363007	23.363001	865.528992	-0.021875	4.812500	-4.711875
-296.582001	24.400000	767.257996	-1.400000	5.201875	-4.681250
-269.376007	-11.651000	712.663025	-5.893125	-4.558750	-6.851250
-262.117004	60.389999	672.281006	0.700000	-5.525625	-9.108750
-250.100006	-19.886000	687.591980	1.338750	-10.635625	-7.975625
-251.197998	48.129002	777.384033	1.662500	-38.915627	-1.351875
-232.471008	-14.640000	955.687012	-2.454375	-69.173126	-0.148750
-136.884003	-8.479000	1040.598999	0.284375	-63.192501	4.081875
-151.524002	4.758000	1210.484009	-2.226875	-40.556252	-2.393125
-69.235001	-70.577003	1188.584961	3.473750	-39.143124	-7.752500
-12.871000	5.734000	1216.218018	12.398750	-25.077499	-10.478125
-56.303001	-52.277000	1172.724976	20.754999	-23.156876	-11.178125
-11.346000	11.712000	1130.756958	20.754999	-23.156876	-10.438750
-11.346000	-5.002000	1090.009033	15.277500	-18.834375	-10.438750
-116.570999	-5.002000	1090.009033	17.832500	-24.456249	-13.540625
-12.200000	42.577999	1068.659058	10.447500	-33.070625	-14.818125
38.735001	24.156000	1062.802979	-0.752500	-28.118126	-17.548124
82.959999	-5.612000	1112.334961	12.153750	-39.812500	-24.189375
108.458000	39.771999	1088.178955	34.825001	-44.590000	-21.984375
72.956001	53.070000	1077.442993	42.498749	-47.066250	-13.339375
210.816010	95.770004	1126.487061	23.520000	-61.201874	-5.508125
159.820007	135.115005	1225.185059	7.122500	-65.130623	-17.263750
279.014008	203.679001	1216.035034	-7.008750	-88.567497	-3.911250
335.561005	78.445999	1332.789062	-15.106875	-84.752502	-0.743750
402.416992	164.639008	1225.245972	-1.120000	-52.434376	3.788750
311.466003	130.417999	1345.781982	-14.385000	-58.148125	13.986875
412.908997	43.493000	1237.079956	-14.625625	-39.970001	2.266250
345.076996	137.981995	1158.268066	-15.728125	-23.187500	-4.099375
460.001007	62.586002	1237.079956	-14.783125	-27.881874	4.322500
381.250000	71.065002	1177.177979	-7.870625	-18.965626	2.178750
364.902008	34.098999	1235.250000	-16.743126	-24.959375	4.243750
428.585999	-14.396000	1215.729980	-14.345625	-23.353750	-0.546875
406.199005	-32.939999	1226.832031	-5.096875	-21.017500	-2.471875
457.438995	-17.568001	1252.329956	1.491875	-21.398125	-5.048750
440.664001	-1.098000	1187.182007	8.308125	-3.972500	-3.902500
420.290009	-19.398001	1166.686035	5.477500	3.535000	-4.563125
-215.330002	-23.607000	1050.786011	-0.463750	-0.717500	-2.450000
-227.591003	-25.498001	969.411987	-1.540000	3.705625	-1.435000
-256.321991	-20.069000	879.559021	-3.333750	5.044375	-2.760625
-243.145996	-3.294000	746.457031	-7.752500	1.942500	-3.093125
-231.311996	-18.910000	706.562988	-5.696250	-0.735000	-2.922500
-152.744003	-44.225002	650.565002	1.238125	-0.441875	-8.754375
-206.485001	-23.851000	704.244995	5.363750	-4.545625	-8.019375
-208.986008	-9.272000	839.238037	9.445625	-27.011250	-2.393125
-180.438004	-31.171000	929.518005	10.403750	-40.923752	-3.863125
-170.494995	-5.856000	1018.578003	3.928750	-38.333752	-6.335000
-71.553001	-32.635002	1083.542969	-0.380625	-40.599998	-3.635625
-39.528000	-0.122000	1163.697021	-4.803750	-39.318127	-15.841875
-32.757000	-101.808998	1175.469971	-14.161875	-37.253124	-10.246250
-9.333000	-20.069000	1258.125000	-14.533750	-52.788750	-19.153749
29.585001	-87.656998	1161.196045	-8.785000	-52.176250	-18.624374
103.090004	-55.875999	1232.626953	1.137500	-49.279999	-1.911875
74.176003	-109.250999	1167.174072	-9.384375	-36.470001	-15.960000
100.405998	-70.943001	1096.109009	3.158750	-20.645624	-8.124375
190.686005	-43.310001	1133.075073	23.016874	-6.785625	3.163125
39.345001	-142.313004	1103.245972	33.683125	16.756250	3.386250
13.725000	-21.837999	1090.740967	57.758751	9.686250	6.571250
89.059998	-31.171000	1164.124023	52.570000	-16.038750	11.948125
121.389999	31.720001	1126.609009	40.258751	-34.811874	-9.012500
161.466995	126.758003	1229.698975	32.348751	-54.775002	2.257500
204.837997	92.232002	1247.389038	27.715626	-43.715000	-0.958125
212.462997	176.229004	1234.030029	32.248123	-36.719376	5.495000
242.414001	97.844002	1218.536011	5.131875	-39.558750	3.412500
341.661011	132.065002	1190.902954	4.598125	-20.488125	-11.755625
164.882996	112.239998	1299.056030	23.406250	-5.438125	3.570000
196.419998	112.849998	1130.208008	10.574375	-12.101250	4.873750
167.018005	268.399994	1205.969971	-15.758750	-35.888126	0.406875
334.890015	206.546005	1169.552979	-39.309376	-44.458752	7.568750
305.122009	124.562004	1255.318970	-37.769375	-39.191250	4.195625
316.223999	70.577003	1201.760986	-30.480625	-28.459375	4.270000
309.575012	14.945000	1181.326050	-20.387501	-16.305626	-5.814375
317.505005	80.336998	1207.190063	-8.907500	-16.375626	-3.758125
376.369995	0.732000	1168.577026	-8.150625	-9.918125	-2.152500
348.005005	-7.381000	1276.242065	0.249375	-15.929375	-2.183125
-238.022003	2.867000	1069.329956	-0.284375	-2.765000	-0.564375
-243.938995	31.842001	1083.238037	-0.354375	-6.514375	-2.305625
-220.027008	-1.342000	1054.323975	-3.863125	-3.066875	0.056875
-255.468002	3.965000	1034.193970	-10.290000	0.000000	-1.220625
-244.488007	0.854000	1036.024048	-7.638750	-2.261875	-2.808750
-177.693008	2.562000	983.015015	-8.356250	-2.012500	-2.248750
-145.057999	18.300001	837.957031	-18.335625	6.969375	0.564375
-168.421005	9.821000	810.994995	-23.183125	4.921875	2.520000
-129.990997	-17.507000	703.330017	-11.729375	0.485625	-4.375000
-246.378998	-32.208000	752.252014	-9.345000	-13.370000	-4.186875
-130.356995	-57.767002	852.718994	-15.369375	-35.783127	-4.703125
-218.684998	-36.050999	895.236023	-0.630000	-25.917500	2.926875
-75.579002	-101.503998	963.129028	2.515625	-26.871250	3.246250
-191.235001	-86.375999	987.285034	-14.398125	-35.739376	10.530625
-55.144001	-40.138000	1022.421021	-31.298750	-36.426250	4.545625
-37.453999	-96.684998	999.729004	-7.980000	-22.133125	5.967500
-162.626007	-55.570999	1033.218018	-10.040625	-18.742500	1.723750
-12.078000	-108.275002	1110.200073	-4.751250	-43.785000	8.579375
-34.709000	-107.604004	1132.221069	18.073126	-55.111874	4.716250
40.138000	-103.395004	1070.306030	16.305626	-59.657501	-3.985625
155.611008	-116.083000	1122.583008	22.417500	-69.448753	-2.646875
197.639999	-72.590004	1171.443970	32.952499	-74.309372	-20.580000
245.951996	-98.027000	1201.822021	36.435001	-75.337502	-28.192499
265.532990	44.957001	1231.589966	41.111874	-64.036873	-10.014375
268.460999	-70.943001	1240.922974	16.550625	-44.572498	-7.765625
341.234009	27.267000	1381.650024	4.506250	-30.012501	-8.513750
361.425018	75.639999	1311.195068	-8.395625	-35.643124	3.141250
261.751007	-113.216003	1301.922974	-14.021875	-25.151875	1.850625
278.526001	1.891000	1358.713989	-1.168125	-14.315000	-2.721250
289.750000	-77.592003	1213.961060	-11.313750	-30.646875	-14.643125
395.768005	7.259000	1295.701050	-6.308750	-54.998123	-19.429375
404.247009	0.183000	1250.255981	-4.051250	-54.862499	-16.296875
417.727997	10.187000	1287.893066	-3.994375	-39.305000	-14.323750
409.248993	-3.172000	1265.567017	-7.192500	-19.521250	-13.934375
410.652008	-2.196000	1149.911011	-11.690000	-8.833125	-13.076875
370.330994	-18.666000	1144.177002	-2.428125	-2.738750	-7.612500
376.553009	-11.041000	1096.047974	4.318125	-2.226875	-5.013750
384.848999	-26.474001	1083.909058	7.665000	-2.690625	-3.115000
-208.376007	62.159000	1079.883057	-0.739375	4.112500	0.923125
-186.721008	41.053001	1055.971069	-1.242500	2.546250	1.277500
-188.367996	49.593002	1033.645020	-0.420000	-0.958125	-0.770000
-196.847000	42.882999	1029.313965	-0.118125	-7.358750	-4.134375
-157.563004	38.063999	969.595032	-2.743125	-3.543750	-4.033750
-171.654007	34.892002	883.707031	-2.121875	1.522500	-5.000625
-159.332001	29.341000	836.554016	-0.096250	0.433125	-7.017500
-168.542999	-11.285000	775.432007	-0.196875	2.121875	-5.118750
-144.020996	59.963001	833.260010	6.243125	-5.521250	0.958125
-162.259995	-14.457000	894.015991	6.151250	-17.443125	-0.595000
-180.925995	77.470001	1005.218994	3.552500	-32.641876	0.030625
-89.426003	74.298004	1086.714966	-1.575000	-37.716873	-2.340625
-94.672005	28.792000	1077.321045	1.806875	-28.966875	-4.961250
-8.967000	63.379002	1131.489014	-4.265625	-35.630001	-7.406875
6.222000	-8.845000	1132.404053	-0.717500	-34.256248	-7.389375
-33.611000	48.922001	1170.406982	2.611875	-30.170000	-4.585000
55.998001	22.997000	1099.159058	-3.053750	-31.150000	-5.976250
56.608002	66.489998	1145.579956	4.777500	-32.178123	-5.652500
95.465004	19.398001	1064.083984	-0.901250	-23.231251	-8.133125
74.114998	63.806000	1116.483032	8.115625	-12.350625	-8.955625
57.218002	24.948999	1086.166016	3.797500	-9.345000	-5.888750
25.254000	38.552002	1016.442993	-12.748750	-14.621250	-7.892500
11.468000	95.281998	1070.367065	-17.023125	-8.509375	-6.934375
100.162003	71.308998	1043.039062	-19.018126	-16.537500	0.118125
35.746002	-40.625999	1140.516968	-14.218750	-26.770624	11.576250
104.005005	-10.370000	1077.138062	1.268750	-35.730625	7.280000
224.236008	-60.512001	1161.135010	8.133125	-47.950001	-12.341875
246.013000	-11.163000	1091.961060	25.580626	-36.382500	-18.016251
281.515015	67.709999	1079.395020	16.196251	-11.414375	-15.675625
290.299011	32.695999	1162.843018	8.198750	-19.057501	-13.435625
261.080017	110.898003	1206.946045	5.285000	-37.489376	2.016875
235.764999	60.512001	1253.671997	-18.991875	-55.531876	1.754375
300.791016	-17.690001	1257.149048	-13.090000	-57.526875	-3.241875
340.563019	61.487999	1244.034058	-13.304375	-38.766876	10.263750
289.993988	-96.380005	1255.135986	-13.811875	-17.456249	-3.793125
383.567993	29.036001	1154.181030	2.095625	-1.780625	-8.260000
391.192993	-20.374001	1193.587036	1.881250	-5.801250	-4.103750
-99.369003	0.366000	1049.078003	2.121875	-1.246875	-0.494375
-118.218002	-16.348000	1020.530029	-1.010625	0.590625	-1.421875
-152.012009	-12.871000	939.033997	-2.051875	-0.153125	-4.068750
-182.634003	-4.819000	929.945007	1.929375	-3.906875	-5.770625
-156.953003	21.167000	881.572021	4.475625	-6.540625	-7.608125
-52.948002	13.359000	687.897034	-0.183750	2.830625	-6.951875
-96.684998	-54.290001	534.848022	6.391875	14.065625	-2.629375
-90.707001	-33.855000	476.959015	11.729375	15.535625	-7.901250
-173.423004	-28.609001	513.924988	10.911250	-2.975000	-16.257500
-65.758003	45.872002	594.932983	15.303750	-32.865002	-8.771875
3.111000	2.623000	831.979004	15.373750	-48.851250	-11.112500
61.854000	-28.548000	940.376038	9.791250	-55.291248	-8.706250
249.124008	116.693001	1104.526978	8.820000	-79.218124	-0.765625
340.380005	1.647000	1212.313965	9.992500	-90.422501	9.629375
256.993011	181.352997	1318.209961	14.218750	-77.980003	-3.438750
244.305008	35.563000	1299.787964	-6.759375	-90.593124	-14.993125
500.748993	75.945000	1360.910034	7.402500	-77.105003	-11.396875
394.059998	10.370000	1363.776978	36.561874	-67.357498	-16.248751
506.605011	142.923004	1465.281006	39.554375	-85.150627	-10.093125
600.484009	158.600006	1331.812988	19.915001	-50.728127	3.416875
391.315002	140.300003	1417.701050	2.944375	-61.162498	8.373750
509.166992	101.077003	1241.411011	-11.165000	-66.570000	7.599375
463.234009	47.519001	1322.052979	-6.418125	-58.178749	-0.857500
575.291016	128.404999	1330.104980	-12.149375	-52.171875	-6.733125
620.858032	71.065002	1349.259033	-14.131250	-31.639999	-1.649375
521.000977	42.456001	1267.336060	-7.376250	-15.036875	-2.756250
589.320984	3.233000	1210.057007	-3.255000	-14.017500	-4.812500
555.832031	49.043999	1105.380981	2.555000	-6.216875	-7.608125
558.272034	125.903999	1060.667969	1.382500	-0.056875	-8.365000
586.210022	52.521000	1029.802002	-2.415000	2.695000	-2.629375
525.088013	59.841000	999.057983	-2.909375	8.531250	-2.476250
554.734009	63.623001	976.182983	0.315000	9.476250	-1.246875
536.434021	55.570999	966.301025	2.533125	7.271250	0.087500
539.544983	80.336998	957.028992	1.430625	5.376875	-2.113125
533.811035	67.771004	928.664001	-1.373750	7.721875	-0.354375
520.817993	58.987000	945.377991	-4.834375	2.218125	-0.568750
551.684021	41.968002	963.861023	-3.832500	-2.646875	-1.277500
539.911011	44.408001	979.171997	-0.953750	-1.890000	-3.425625
-170.556000	6.893000	1062.925049	-0.188125	-0.936250	-2.366875
-187.880005	8.906000	1043.222046	2.458750	3.635625	-1.526875
-203.740005	-8.784000	1029.192017	-0.153125	0.253750	-1.876875
-195.505005	-17.995001	959.468994	-2.835000	-0.070000	-0.266875
-212.035995	-14.579000	1021.140015	1.155000	-7.542500	-3.451875
-143.167007	-10.675000	965.080994	1.933750	-6.986875	-6.387500
-58.987000	-54.900002	778.848022	-0.520625	5.398750	-4.156250
-84.119003	-48.861000	654.164001	4.991875	12.775000	1.063125
-21.716000	-19.520000	581.879028	12.604375	10.902500	-2.480625
-148.839996	-10.309000	506.421997	11.869375	17.307501	-3.027500
-128.893005	51.972000	649.955017	-3.959375	-10.823750	-0.752500
-212.341003	-33.489002	697.108032	9.183125	-39.856251	1.710625
26.657000	98.759003	835.822021	12.495000	-63.682499	-9.165625
79.848999	-63.500999	967.887024	25.466875	-98.568748	-4.703125
85.705002	191.113007	1095.743042	23.830626	-104.943123	-9.436875
141.824997	32.452000	1148.812988	22.365000	-84.437500	-12.040000
82.899002	151.645996	1240.130005	14.765625	-49.056873	0.293125
147.009995	77.409004	1242.203979	-5.871250	-23.056250	-3.618125
1.403000	85.827003	1281.182983	4.930625	12.420625	-6.540625
267.240997	58.621002	1476.016968	16.353750	54.389999	-4.488750
144.813995	-54.167999	1466.135010	-10.246250	60.270000	-30.528749
96.624001	205.936005	1646.451050	18.099375	56.166248	-22.601250
-190.259003	37.088001	1425.203979	1.662500	-50.811249	-7.043750
104.066002	213.438995	1513.044067	22.408751	-115.653122	-7.415625
292.433990	201.361008	1428.681030	4.606875	-94.565628	2.646875
189.039001	79.543999	1330.471069	-0.630000	-48.453125	6.973750
126.636002	163.541000	1219.268066	-2.778125	-36.084999	1.194375
217.647995	134.199997	1228.723022	-10.937500	-44.178749	3.180625
200.080002	47.396999	1197.674072	-13.527500	-14.297500	-1.710625
199.591995	72.956001	1186.755005	-5.267500	-10.128125	-6.247500
259.006012	79.117004	1181.265015	-5.503750	-24.850000	-9.703750
287.066010	2.684000	1225.978027	5.460000	-10.832500	-4.016250
293.959015	131.943008	1124.535034	1.907500	-9.795625	-3.325000
332.023010	108.153000	1112.945068	-5.801250	-9.935625	1.063125
346.358002	40.564999	1047.492065	-9.861250	1.570625	-0.918750
278.464996	39.406002	1139.358032	-8.596875	4.908750	-3.521875
277.428009	10.370000	1118.312988	3.657500	1.500625	8.526875
349.225006	60.207001	1080.493042	6.033125	-4.401250	-0.013125
-216.671997	28.975000	1138.504028	-0.280000	-9.756250	-1.715000
-218.136002	-7.442000	1108.979980	-1.588125	-2.108750	-0.533750
-200.141006	15.311000	1091.290039	-0.761250	4.270000	1.281875
-239.181000	-21.228001	1086.410034	-0.914375	-0.227500	0.730625
-216.488998	35.319000	1114.958008	4.961250	2.515625	-4.243750
-230.458008	-2.623000	1077.321045	8.960000	7.271250	-8.968750
-193.309006	10.370000	1015.161987	1.588125	11.296250	-3.145625
-230.763000	14.701000	935.374023	-1.715000	13.645625	-3.080000
-196.725006	-3.782000	761.402039	-0.463750	14.621250	-5.591250
-216.061996	1.769000	586.332031	-3.771250	17.517500	-7.984375
-189.953995	-10.675000	529.296997	-5.451250	4.370625	-5.289375
-189.953995	-2.379000	622.932007	-2.563750	-16.953125	-3.447500
-166.957001	-13.603000	671.122009	-0.905625	-25.900000	1.054375
-203.130005	-5.429000	773.968018	-7.774375	-25.340000	2.638125
-163.785004	39.406002	894.992004	-6.273750	-39.322498	-3.220000
-106.750000	-55.632000	880.962036	-3.294375	-42.883751	-5.175625
-181.109009	9.943000	1064.328003	18.668125	-40.971874	-20.702499
22.204000	38.796001	1020.713013	21.236250	-48.151249	-19.171249
44.347000	-9.028000	1155.828003	13.146875	-24.504375	2.563750
13.176001	131.028000	1226.282959	-1.610000	-18.458124	-4.606875
26.230000	58.865002	1224.026001	6.085625	-38.849998	9.533125
-60.329002	25.864000	1252.573975	4.033750	-59.591873	6.247500
176.106995	-3.416000	1336.083008	3.670625	-68.888748	-9.751875
90.829002	112.301003	1311.927002	-3.727500	-58.926876	-1.846250
265.654999	2.318000	1485.045044	1.338750	-43.693127	-14.940625
156.770004	-21.045000	1285.391968	23.257500	-19.096874	-22.461250
123.708000	80.703003	1278.133057	-0.048125	-30.520000	-14.350000
236.130997	-75.762001	1281.915039	-6.422500	-28.800625	-21.590626
163.906998	56.913002	1184.254028	16.821875	-12.709375	-27.890625
183.548996	93.635002	1459.852051	14.980000	-33.858124	-20.698126
215.451996	39.711002	1438.441040	18.094999	-43.439377	-17.653126
235.520996	93.147003	1396.229004	5.127500	-51.091251	-5.993750
297.924011	30.256001	1350.296021	-3.211250	-31.871876	1.023750
173.484009	4.209000	1236.713989	1.675625	-11.913125	0.748125
212.462997	23.485001	1240.435059	2.266250	-28.625626	-1.242500
255.346008	71.125999	1174.372070	5.197500	-11.445000	-6.619375
264.679016	53.436001	1189.500000	-0.126875	-11.388125	-5.241250
296.459991	58.743000	1167.113037	1.496250	-2.660000	-3.180625
-320.188995	28.914000	1007.293030	-0.888125	-1.207500	-0.940625
-344.710999	38.125000	954.710999	-1.570625	1.890000	-3.644375
-334.341003	49.776001	920.734009	-2.108750	-3.001250	-3.001250
-309.696991	12.627000	870.835999	0.227500	-4.431875	-1.133125
-295.239990	27.572001	812.947021	3.167500	-6.623750	-4.773125
-290.908997	22.570000	771.466980	4.510625	-11.112500	-5.271875
-138.225998	29.951000	575.656982	5.232500	3.412500	-1.990625
-152.134003	18.483000	533.445007	2.489375	1.093750	-1.614375
-131.333008	9.089000	553.819031	5.118750	-17.298750	4.615625
-239.973999	52.948002	637.632996	7.910000	-22.330000	2.283750
-47.031002	42.151001	817.338989	5.915000	-43.924999	4.011875
-219.356003	-85.278000	965.203003	-3.561250	-46.178123	4.974375
65.453003	179.218002	1036.451050	-11.904375	-53.615623	8.106875
-227.408005	-21.837999	1139.968018	-6.457500	-56.415627	7.472500
-31.903000	123.525002	1406.354980	7.402500	-66.259377	-3.395000
-23.118999	112.179001	1239.458984	8.911875	-54.923752	-1.015000
-54.167999	-49.593002	1326.322998	-3.574375	-56.122501	1.688750
79.238998	86.132004	1310.890015	4.991875	-38.714375	-4.182500
106.139999	102.480003	1323.822021	-19.525625	-49.476875	-6.531875
-112.972000	-278.221008	1476.687988	-4.777500	-39.173752	-18.567499
130.417999	-8.235000	1324.737061	7.013125	-8.124375	-13.146875
104.737000	41.174999	1603.446045	30.415001	-72.222504	-10.981250
166.529999	131.759995	1341.145996	35.888126	-56.262501	-12.385625
7.564000	105.834999	1206.763062	13.991250	-40.621876	-9.651250
207.766006	198.981995	1369.510986	-4.291875	-27.754999	0.713125
95.770004	-14.213000	1176.506958	-2.226875	-27.107500	-3.998750
129.014999	57.035000	1321.198975	14.301875	-65.178749	-2.318750
367.281006	70.638000	1309.730957	17.661875	-64.986252	3.626875
301.705994	112.972000	1233.541992	17.587500	-32.746876	0.091875
304.817017	122.975998	1283.623047	11.488750	-28.065624	2.909375
328.851013	95.221001	1227.503052	7.564375	-9.677500	7.428750
258.457001	92.842003	1177.544067	8.662500	2.830625	3.644375
270.962006	76.372002	1140.273071	4.213125	4.970000	-1.426250
254.126007	117.608002	1188.036011	10.023125	5.035625	-3.128125
291.885010	131.272003	1238.360962	6.352500	7.061250	-4.904375
260.958008	142.740005	1530.855957	15.268750	18.458124	-1.041250
210.449997	143.716003	1556.049072	20.562500	11.453750	11.064375
294.446991	194.529007	1516.643066	15.080625	33.604374	12.936875
-253.882004	72.834000	1072.624023	0.630000	-3.045000	-2.485000
-256.444000	75.822998	1074.453979	0.910000	-4.025000	-0.971250
-272.914001	73.444000	1066.218994	0.730625	-3.517500	-2.135000
-265.166992	82.532997	1086.471069	-1.325625	-6.107500	-2.091250
-262.910004	80.520004	1086.287964	-0.542500	-0.310625	-0.231875
-262.910004	71.675003	1081.895996	-0.424375	-2.712500	-1.338750
-209.291000	74.419998	1034.560059	0.253750	-1.815625	-0.835625
-108.153000	57.584000	914.939026	2.191875	9.611875	-2.073750
-84.850998	32.513000	648.064026	6.829375	22.413124	-9.323125
-135.175995	51.423000	420.472992	3.740625	31.241875	-14.651875
-259.006012	29.341000	309.148010	-10.517500	32.935001	-3.819375
-168.604004	143.533005	333.852997	-32.108124	14.586250	4.799375
-150.365005	50.507999	539.301025	-35.441875	10.368750	12.223750
-215.330002	167.688995	677.953979	-34.006874	0.350000	18.449375
-70.455002	-96.014000	930.799011	-11.453750	-34.024376	9.244375
5.734000	66.429001	946.720032	11.703125	-73.832497	2.296875
-27.084000	-49.348999	1199.687012	11.860625	-90.343750	-2.349375
8.479000	-14.213000	1236.775024	-1.268750	-103.026878	-17.736250
63.623001	4.331000	1412.333008	3.854375	-109.195625	-19.670000
46.970001	-45.750000	1467.721069	27.873125	-97.160004	-22.933750
337.574005	49.166000	1699.459961	66.968124	-74.751251	-10.714375
-267.790009	323.300018	1601.494019	18.305000	-67.199997	10.622500
173.179001	85.522003	1537.322021	2.047500	-42.608124	-1.925000
34.038002	36.112000	1590.697021	-17.395000	-80.989998	-12.635000
233.020004	41.174999	1501.636963	-30.817499	-50.780624	-20.908125
176.595001	-92.537003	1413.187012	-0.450625	-7.818125	-24.941875
188.124008	-27.267000	1406.598999	10.351250	-24.368750	-20.212500
212.585007	99.369003	1245.681030	13.164375	-1.277500	-16.349375
130.052002	45.811001	1237.506958	16.196251	-2.935625	-1.360625
252.540009	83.264999	1221.342041	3.495625	-15.378125	6.483750
229.908997	99.795998	1167.234985	1.474375	1.688750	5.061875
257.298004	95.403999	1155.889038	1.610000	5.757500	7.481250
234.667007	61.976002	1127.218994	3.167500	14.144375	5.919375
196.725006	55.327000	1092.021973	7.253750	12.005000	5.985000
235.154999	92.292999	1093.729980	7.315000	5.858125	7.507500
239.181000	82.167000	1076.527954	3.911250	7.428750	7.249375
234.727997	103.639000	1069.513062	7.008750	2.231250	8.264375
256.627014	73.688004	1081.286011	6.212500	0.945000	4.545625
-331.596008	55.205002	1086.654053	0.253750	-4.668125	-5.731250
-346.480011	47.519001	1080.370972	-1.513750	0.398125	-4.256875
-370.330994	65.758003	1063.108032	-1.614375	4.169375	-2.498125
-369.537994	43.126999	1045.906006	0.008750	4.121250	-1.789375
-380.701019	63.257000	1032.973999	0.188125	1.890000	-1.120000
-343.979004	49.532001	978.135010	-0.161875	3.360000	-3.045000
-275.658997	61.366001	847.595032	-0.660625	11.620000	-2.170000
-213.988007	52.399002	603.595032	2.135000	21.752501	-1.063125
-232.288010	-16.287001	426.329010	3.202500	27.606251	-6.177500
-228.811005	85.339005	342.515015	-15.006250	21.411249	-12.446875
-271.266998	-10.614000	462.623993	-19.831875	-7.188125	-0.818125
-166.652008	87.901001	598.531982	-19.831875	-43.413124	5.359375
-237.960999	41.968002	776.468994	-11.567500	-43.413124	5.359375
-237.960999	-109.738998	847.838989	11.773125	-50.347500	-1.115625
-16.165001	-109.738998	847.838989	32.134377	-36.959999	-1.881250
-158.722000	205.387009	1111.907959	29.916250	-22.203125	-0.280000
-144.936005	76.311005	1193.953003	23.813126	-5.761875	9.205000
-286.700012	108.214005	1266.115967	39.318127	-14.323750	22.592501
-405.589020	214.232010	1221.342041	21.896875	-58.275002	12.976250
-118.278999	112.301003	1354.870972	21.271250	-77.586250	14.227500
-319.274017	336.170990	1442.101074	32.865002	-44.773750	20.405001
-184.830002	232.837006	1362.862061	7.857500	-14.109375	7.056875
-240.889008	220.027008	1371.951050	-4.064375	-41.107498	9.568125
-162.138000	291.274994	1487.363037	-54.556252	-99.771873	21.341249
94.000999	196.298004	1475.041016	-59.101875	-60.217499	4.423125
-57.157001	47.031002	1360.727051	-29.850624	-11.025000	-17.290001
-99.002998	43.675999	1390.921997	-32.221874	-44.598751	-10.591875
-71.125999	72.590004	1367.558960	-18.611250	-54.468750	-6.527500
-35.685001	5.795000	1242.203979	11.681250	-29.434999	-6.593125
-10.919000	45.932999	1222.317993	31.119375	-12.390000	-3.788750
9.943000	109.068001	1129.842041	33.315624	-10.648750	-3.220000
57.706001	127.917000	1166.136963	16.025625	-14.017500	-3.272500
107.299004	120.841003	1198.161987	8.828750	-15.203125	-4.418750
128.770996	126.819000	1162.904053	7.297500	-4.628750	-5.718125
108.580002	116.815002	1165.282959	4.725000	-4.305000	-6.138125
126.819000	144.936005	1122.827026	6.352500	-2.218125	-3.465000
91.744003	142.007996	1121.546021	2.235625	-1.750000	0.717500
95.586998	138.470001	1104.099976	2.546250	-0.551250	2.563750
100.467003	127.063004	1127.951050	1.491875	-3.163125	2.393125
102.113998	126.270004	1125.937988	0.118125	-1.697500	0.026250
109.495003	133.895004	1146.617065	0.603750	0.826875	-1.273125
102.053001	127.917000	1117.031982	1.058750	3.136875	-0.923125
94.245003	136.701004	1122.094971	0.975625	2.751875	-2.406250
101.565002	147.742004	1107.515991	-1.570625	2.782500	-3.736250
89.243004	123.280998	1098.671021	-1.894375	3.198125	-2.721250
103.700005	124.318001	1131.794067	1.093750	0.367500	-2.187500
105.652000	135.419998	1126.914062	0.730625	2.310000	-2.835000
91.500000	137.128006	1125.450073	3.640000	3.556875	-0.918750
96.075005	138.470001	1122.765991	5.735625	3.001250	0.258125
81.374001	143.044998	1116.971069	5.040000	3.876250	-1.067500
72.651001	157.624008	1120.020996	5.788125	4.418750	-0.918750
70.150002	145.485001	1111.847046	5.810000	3.005625	1.225000
72.651001	152.682999	1135.636963	5.451250	2.148125	2.296875
