A_X[mg]	A_Y[mg]	A_Z[mg]	G_X[dps]	G_Y[dps]	G_Z[dps]	
417.606018	123.647003	1039.683960	1.356250	-1.465625	-0.520625
400.037994	138.348007	1037.854004	3.154375	-2.432500	-1.596875
425.475006	134.565994	1035.536011	1.806875	-1.610000	-2.331875
409.798004	126.453003	1076.223022	1.220625	1.544375	-3.386250
431.941010	85.460999	1086.471069	2.222500	2.104375	-6.803125
350.384003	17.507000	1191.573975	-0.236250	3.543750	-3.539375
408.821991	-126.880005	1478.822998	7.621250	-3.596250	3.880625
415.837006	-145.667999	1504.198975	21.004375	13.698125	18.116875
337.451996	-223.626007	1666.825073	20.628124	15.526875	34.536251
416.141998	-147.009995	1591.124023	26.464375	12.530000	38.574375
462.502014	-105.591003	1456.984985	24.990000	12.757500	37.869999
588.039978	78.080002	1376.037964	24.543751	34.015625	34.439999
568.031982	123.342003	1275.083008	9.200625	61.490623	28.700001
558.942993	190.380997	1134.843994	-4.130000	77.083122	26.363750
409.859009	197.335007	975.023987	-6.037500	88.370628	32.886875
359.899994	222.710999	936.533020	6.343750	76.964996	36.863750
247.781998	269.010010	791.475037	10.683750	52.968124	32.900002
292.921997	330.376007	684.664001	5.779375	45.600624	30.450001
166.895996	277.001007	643.733032	0.385000	43.045624	29.041250
158.660995	337.817993	628.666016	-5.372500	28.533751	31.968124
92.110001	262.605011	621.406982	-9.839375	20.724375	23.594376
-43.126999	254.186996	731.634033	-6.330625	12.586875	11.904375
42.761002	274.195007	769.637024	-4.112500	-12.175625	3.718750
-26.657000	222.893997	899.445007	-5.293750	-17.863125	2.130625
77.104004	233.386002	1023.092041	-1.408750	-19.893126	2.660000
67.649002	170.678009	1064.572021	0.700000	-24.898125	3.648750
147.925003	194.895004	1109.102051	1.986250	-12.595625	5.709375
152.072998	114.557999	1135.576050	1.802500	-3.591875	4.081875
120.536003	138.042999	1147.044067	3.027500	-1.938125	2.393125
123.403000	124.318001	1146.800049	3.027500	-5.433750	0.157500
119.559998	111.325005	1140.883057	3.933125	-5.433750	0.157500
119.559998	111.325005	1114.652954	2.095625	-5.005000	-0.931875
135.175995	140.421997	1114.652954	1.277500	-6.741875	-2.445625
154.757004	88.754997	1113.128052	-0.756875	-0.035000	-0.096250
132.675003	115.778000	1105.503052	-0.813750	3.758125	-4.751250
70.150002	120.474998	1098.549072	0.148750	-1.820000	-6.689375
338.610992	200.141006	1218.963013	12.932500	-18.073126	26.066250
332.023010	229.115997	1154.973999	10.430000	-8.697500	19.420626
320.188995	165.554001	1125.816040	3.434375	-2.152500	8.067500
319.274017	190.259003	1100.135010	1.706250	-3.412500	-3.574375
308.598999	182.695007	1082.384033	-0.595000	-1.898750	-6.676250
324.153992	168.360001	1082.628052	-3.045000	-1.960000	-7.748125
322.324005	160.003006	1086.227051	-2.371250	1.614375	-6.536250
305.000000	117.058998	1122.583008	1.640625	3.701250	-2.979375
325.069000	50.142002	1249.707031	7.673750	-0.214375	-1.338750
352.946014	11.529000	1399.279053	10.180625	-5.210625	0.713125
373.381012	-63.135002	1449.542969	19.578125	-0.083125	3.718750
329.338989	-2.562000	1466.683960	21.559999	6.540625	13.173125
357.216003	39.528000	1445.639038	16.117500	-0.765625	21.621250
368.317993	96.868004	1336.998047	13.496875	-5.149375	29.859375
359.838989	136.701004	1234.701050	13.190625	-25.033751	35.713123
425.352997	214.598007	1123.498047	5.963125	-32.939377	23.992500
495.259003	134.565994	943.242981	4.711875	-22.640625	10.815000
477.752014	336.597992	977.403015	1.225000	-2.944375	2.353750
502.457001	259.860016	920.794983	-8.960000	37.340626	5.333125
408.944000	255.468002	964.898010	-7.678125	67.300629	2.940000
347.821991	246.745010	906.887024	0.822500	74.305000	10.491250
316.589996	205.020996	912.864990	3.758125	68.398750	10.447500
246.257004	249.246002	913.048035	0.288750	53.685623	10.438750
222.345001	190.380997	922.625000	7.463750	31.285625	15.325625
255.102005	269.864014	906.338013	5.573750	26.188749	13.444375
162.748001	237.412003	930.432983	-2.485000	37.126251	21.201250
153.537003	217.404007	968.497009	0.266875	30.078125	21.293125
144.264999	240.766998	977.647034	2.130625	16.638124	16.270624
107.542999	221.552002	1007.354004	1.540000	17.863125	17.731874
88.938004	233.386002	1002.169006	-0.026250	20.286875	9.773750
67.282997	209.535004	981.978027	-1.640625	16.174376	7.354375
61.305000	231.861008	1004.853027	-3.066875	19.389999	4.182500
34.709000	224.296997	989.664001	-1.680000	18.191250	2.520000
3.172000	226.737000	1003.694031	0.297500	8.102500	1.286250
-0.122000	211.792007	1047.979980	-1.439375	5.250000	6.440000
23.363001	219.904999	1043.953979	1.242500	0.774375	-0.293125
-1.647000	201.056000	1081.591064	1.413125	-4.698750	0.866250
47.214001	210.632996	1083.665039	2.187500	-5.880000	1.806875
425.963013	115.350998	1024.860962	-3.583125	-5.761875	-8.382500
423.705994	124.378998	1023.458008	0.791875	-4.812500	-5.543125
428.769012	125.903999	1022.970032	1.141875	-4.545625	-3.101875
440.541992	121.634003	1034.803955	2.130625	-5.709375	-1.465625
431.575012	108.885002	1033.828003	1.028125	-4.790625	-2.288125
453.412994	130.966995	1036.817017	3.578750	-2.104375	-3.696875
447.434998	144.082001	1023.580017	5.936875	-3.136875	-3.298750
450.606995	146.583008	1034.682007	5.538750	-1.820000	-0.485625
444.628998	143.716003	1034.316040	6.435625	0.468125	1.351875
441.640015	119.987000	1048.589966	5.306875	0.424375	2.170000
419.497009	-14.091001	1220.609985	10.285625	3.093125	4.090625
396.438995	-218.990005	1422.764038	18.309376	3.364375	11.405625
526.491028	-399.123016	1812.859009	44.463123	6.278125	17.018749
560.406982	-228.384003	1765.828003	45.403751	21.861876	19.473125
557.906006	-46.360001	1598.260986	41.628124	38.845627	37.275002
539.484009	90.646004	1540.432983	32.865002	46.108124	50.238125
597.067993	246.684006	1367.010010	12.705000	49.726250	49.074375
551.806030	287.005005	1253.916016	5.306875	52.246250	36.163750
691.617981	518.255981	1217.255005	-13.116250	63.048126	26.123125
418.520996	290.908997	1030.777954	-30.826250	92.850624	24.241875
359.838989	398.330017	1018.151001	-35.975624	87.001251	10.395000
324.764008	341.539001	840.640991	-44.791248	73.679375	28.936251
244.610001	301.889008	729.926025	-25.305000	55.090000	19.770624
279.807007	409.675995	669.291992	-23.515625	34.291248	20.746250
97.173004	274.438995	583.465027	-14.446250	64.662498	25.326876
16.469999	257.420013	520.695984	-0.800625	48.286877	-1.264375
-41.297001	283.040009	521.549988	-7.210000	11.366250	-3.521875
-36.904999	216.794006	633.973022	-16.143749	6.116250	-2.773750
-103.821999	127.551003	835.333984	-13.523125	7.848750	-0.866250
-85.948997	91.012001	896.333984	-11.173750	2.940000	5.145000
-51.300999	70.089005	1006.500000	-1.290625	-4.515000	-1.430625
-69.540001	40.869999	1039.440063	3.749375	-3.176250	-1.728125
-82.959999	1.525000	1071.770020	3.014375	-8.570625	-5.372500
-49.105000	21.899000	1123.558960	3.443125	-14.756875	-7.367500
-19.520000	58.621002	1107.150024	4.370625	-7.446250	-7.376250
18.117001	65.574997	1145.396973	5.420625	-8.443750	-4.309375
45.139999	59.963001	1147.287964	1.115625	-10.465000	-0.223125
19.459000	67.527000	1137.344971	-3.828125	-0.511875	-0.030625
390.460999	142.557007	1040.416016	1.566250	0.643125	-4.830000
396.804993	153.475998	1061.217041	5.442500	1.194375	-5.446875
409.432007	169.214005	1058.716064	5.271875	3.850000	-4.961250
376.614014	165.798004	1052.555054	4.003125	3.513125	-2.883125
394.364990	167.384003	1048.833984	4.051250	2.191875	0.656250
381.006012	163.358002	1060.911987	4.007500	5.359375	2.030000
374.845001	155.488998	1077.260010	4.173750	1.903125	1.723750
390.156006	143.899002	1113.921021	4.764375	-0.205625	1.207500
409.248993	106.932999	1192.427979	5.604375	2.830625	3.937500
430.598999	49.959000	1244.217041	8.951250	9.725625	5.114375
409.371002	-6.771000	1305.400024	11.326875	10.574375	1.474375
360.388000	89.731003	1278.010986	17.023125	6.234375	-0.765625
387.593994	117.973999	1273.436035	6.553750	-2.743125	10.854375
448.472015	88.571999	1300.764038	-9.988125	1.697500	21.643126
409.248993	61.305000	1202.493042	-19.613125	4.786250	22.216249
423.096008	39.833000	1195.782959	-22.347500	15.811250	15.736875
435.662018	41.846001	1143.567017	-18.261250	23.104376	12.591250
382.897003	29.829000	1099.402954	-6.321875	20.684999	12.932500
409.432007	98.392998	1019.676025	4.528125	29.141874	7.778750
382.653015	78.323997	1006.561035	9.235625	42.730625	13.063750
335.865997	160.247009	991.250000	8.868125	46.724998	8.806875
217.221008	183.548996	889.075012	1.207500	45.823750	13.221250
312.320007	179.949997	941.291016	13.930000	32.685623	10.281250
199.591995	292.494995	859.002014	9.231250	32.038124	11.641875
131.210999	223.565002	929.457031	11.458125	18.536875	23.393126
242.719009	311.343994	864.736023	16.100000	8.019375	15.938125
93.513000	332.511017	865.223999	2.821875	11.020625	12.306875
173.240005	368.623016	889.807007	3.863125	-0.223125	13.133750
164.395004	359.472992	971.546997	-2.520000	-6.396250	11.860625
264.557007	312.686005	1032.852051	6.492500	-2.261875	6.580000
186.050003	292.190002	1075.796021	21.713125	-2.625000	-11.519375
102.297005	313.967010	972.035034	10.653125	-17.543751	-3.985625
161.528000	171.410004	1103.307007	-8.071875	5.744375	-2.248750
91.439003	177.205002	1100.562012	-9.143750	27.453125	-10.793125
75.884003	87.413002	1127.401978	1.338750	14.393750	-6.886250
113.154999	220.759003	1127.768066	1.338750	0.813750	-2.786875
131.089005	200.568008	1110.687988	15.260000	0.813750	-2.786875
131.089005	200.568008	1062.985962	19.298124	11.935000	-4.956875
425.658020	213.682999	1014.369019	1.531250	-0.315000	1.876875
447.434998	201.238998	1016.747986	1.098125	0.065625	-0.074375
426.938995	196.664001	1002.962036	-0.161875	2.292500	-0.441875
446.093018	184.647003	1021.445007	0.625625	-0.083125	0.988750
420.229004	185.561996	1001.864014	2.231250	-4.081875	0.516250
446.337006	203.557007	1025.348999	2.795625	-3.110625	2.463125
425.658020	140.178009	1089.338013	1.802500	-1.080625	4.764375
429.257019	-0.244000	1302.593994	4.414375	-3.027500	7.065625
462.136017	-55.693001	1460.523071	25.895624	4.375000	7.350000
407.419006	-96.319000	1545.679077	31.097500	-2.625000	18.396875
519.536987	-88.389000	1650.171997	29.045626	10.705625	31.377501
653.676025	4.026000	1562.880981	23.576876	35.376251	35.398125
544.729980	117.425003	1524.695068	12.254375	44.353748	38.793125
568.703003	268.888000	1288.807983	6.711250	46.545624	33.250000
417.300995	219.234009	1137.833008	2.113125	21.691250	30.795626
505.567993	421.144012	968.070007	13.514375	26.359375	4.366250
274.500000	343.674011	743.773010	-2.808750	28.371876	6.825000
494.404999	255.285004	828.197021	-16.038750	28.393749	10.027500
331.901001	351.908997	669.901978	-13.457500	33.656876	3.845625
195.505005	225.456009	660.325012	-19.928125	28.074375	14.459375
379.541992	215.147003	577.304016	-11.725000	29.837500	9.808750
171.348999	257.786011	556.929993	7.402500	48.553749	-3.386250
183.488007	375.821014	755.302002	0.231875	46.046875	-2.835000
35.563000	389.912018	752.007996	13.391875	32.475624	-7.131250
123.830002	324.764008	820.877014	17.465000	14.249375	0.988750
143.777008	350.079010	897.309998	20.811874	3.469375	14.682500
157.867996	272.182007	1015.833008	23.205000	-3.714375	1.124375
179.401001	309.941010	1063.839966	14.323750	-6.037500	-2.778125
147.132004	301.766998	1087.325073	9.095625	8.413125	-3.416875
126.270004	215.268997	1106.844971	10.898125	4.405625	-4.475625
122.366005	297.252991	1113.432983	11.716250	-4.239375	-9.918125
136.274002	279.014008	1128.011963	4.751250	-2.646875	-5.390000
150.548004	295.239990	1116.727051	-6.286875	-2.100000	-0.179375
126.819000	263.032013	1100.196045	-10.631250	-12.967500	0.555625
184.098007	244.000000	1087.020020	-10.863125	-8.465625	-1.903125
183.000000	259.738007	1085.312012	-7.231875	-1.518125	-7.201250
165.675995	232.593002	1080.310059	-9.327500	-0.656250	-3.088750
171.471008	206.485001	1102.208984	-8.303750	-4.939375	-0.787500
351.847992	132.919006	1083.055054	8.255625	8.198750	4.414375
390.705017	71.003998	1220.976074	10.198125	2.126250	5.166875
403.088013	96.196999	1204.384033	12.993750	2.156875	3.841250
404.186005	140.666000	1523.597046	-15.286250	4.869375	15.859375
511.058014	-29.158001	1583.682007	-35.083126	8.251250	26.280624
438.651001	-175.497009	1549.888062	-25.208750	40.280624	29.780624
329.033997	-156.098999	1497.367065	-5.656875	54.564999	26.088125
387.593994	-124.683998	1354.322021	11.690000	55.781250	18.103750
382.592010	-66.246002	1174.799072	25.641874	56.380627	6.370000
421.692993	38.430000	1118.678955	35.625626	60.025002	-4.331250
295.239990	113.216003	1083.115967	31.268126	50.233749	7.262500
249.856003	252.173996	1007.963989	19.936874	34.387501	13.908125
143.593994	382.408997	922.380981	-5.188750	23.799999	36.023750
243.695007	332.938019	989.359009	-26.298124	42.931873	34.002499
157.807007	375.638000	851.804016	-36.745625	31.578751	30.480625
119.987000	320.067017	811.848999	-33.499374	22.666876	30.130625
129.930008	331.230011	761.280029	-3.460625	16.226875	13.313125
27.145000	262.483002	730.902039	16.331875	10.762500	-0.651875
33.123001	320.860016	755.729004	16.712500	-9.362500	-4.195625
2.440000	307.989014	883.950989	7.546875	1.553125	8.780625
-73.078003	164.334000	822.280029	-2.493750	4.309375	16.069374
54.351002	223.138000	1052.859985	4.729375	-33.398750	10.867500
14.091001	215.757004	1030.473022	6.785625	-18.746876	18.252501
126.819000	131.576996	1074.576050	13.041875	-3.622500	4.803750
78.323997	149.266998	1069.086060	10.390625	0.376250	-11.191250
88.694000	213.255997	1095.010986	-2.926875	8.561875	-12.171250
80.581001	182.755997	1134.416992	-1.128750	-0.643125	-9.563750
89.974998	148.596008	1106.723022	-1.754375	-5.140625	-6.698125
99.674004	172.324997	1123.375977	-5.101250	-2.471875	-5.376875
98.942001	139.201996	1107.881958	-0.210000	-3.294375	-5.289375
95.160004	157.440994	1102.087036	0.463750	-2.432500	-6.899375
97.783005	149.632996	1102.391968	-0.131250	3.801875	-3.325000
92.659004	171.471008	1112.884033	4.313750	-6.829375	-2.047500
88.938004	157.867996	1112.274048	2.791250	-9.340625	0.341250
115.534004	182.207001	1116.604980	1.308125	-3.132500	-0.800625
95.038002	156.464996	1115.202026	3.675000	-2.226875	-1.881250
114.985001	187.026001	1114.104004	4.585000	-3.797500	-0.153125
89.243004	142.740005	1115.812012	4.239375	-1.050000	-0.013125
437.675018	163.662994	1018.273010	-3.762500	-1.190000	-3.701250
433.588013	169.153000	1027.789062	0.380625	-1.535625	-1.421875
435.295990	186.171997	1019.371033	3.434375	-0.140000	1.855000
421.876007	169.214005	1009.855042	3.578750	2.953125	1.308125
428.037018	202.276001	1029.130981	3.850000	1.614375	2.060625
446.032013	156.404007	1053.652954	3.591875	0.923125	4.121250
413.580017	112.118004	1091.717041	7.240625	1.946875	2.712500
408.028992	45.993999	1218.230957	15.636250	4.453750	3.517500
402.416992	41.236000	1371.890015	28.183750	12.061875	9.633750
411.201019	-4.880000	1614.426025	37.126251	16.764999	16.699375
426.634003	84.790001	1506.456055	48.938751	35.949375	27.020000
469.821991	127.734001	1492.791992	45.084373	29.631874	46.383751
559.004028	56.424999	1385.553955	27.754999	37.441250	41.230000
572.179993	103.090004	1252.513062	10.675000	70.660622	30.450001
379.237000	61.549000	1306.681030	-5.079375	79.681877	19.289375
415.714996	101.931000	1186.510986	-12.005000	69.383125	-1.653750
341.904999	328.972992	1123.010010	-20.090000	38.447498	-7.323750
414.251007	252.906006	969.533997	-18.834375	16.196251	8.850625
327.631012	313.295990	752.252014	-4.760000	29.841875	-5.411875
259.188995	486.352997	633.119019	7.490000	30.642500	-5.433750
221.003006	511.851013	530.395020	10.228750	39.038124	-7.730625
62.464001	529.601990	532.041992	-1.194375	47.306873	-8.343125
63.195999	540.703979	769.270996	-6.873125	31.692499	2.388750
16.836000	420.472992	735.171997	-17.928749	7.231875	14.175000
-33.306000	380.701019	849.059021	-14.988750	-7.564375	15.089375
41.480000	344.894012	923.418030	-6.348125	-20.540625	9.104375
55.144001	279.136017	991.311035	-5.530000	-16.830626	7.682500
94.488998	286.882996	1060.973022	0.800625	-8.785000	-0.008750
64.293999	192.516006	1127.341064	3.193750	-11.055625	2.226875
116.693001	226.005005	1095.072021	3.193750	-7.039375	2.791250
123.403000	210.206009	1154.973999	1.395625	-7.039375	2.791250
123.403000	210.206009	1099.890991	0.958125	-8.382500	-5.193125
113.399002	179.706009	1099.890991	1.500625	-5.293750	-4.711875
159.087997	186.964996	1103.062988	0.231875	-12.792500	-4.602500
166.225006	185.440002	1083.969971	0.494375	-6.982500	-5.337500
168.665009	197.029999	1068.354004	2.261875	-3.281250	-8.968750
136.762009	219.660995	1099.098022	1.378125	-6.842500	-5.341875
156.098999	198.188995	1091.350952	-2.170000	-7.315000	-3.036250
538.996033	207.583008	975.145996	4.830000	0.730625	-1.120000
551.806030	215.391006	974.658020	4.003125	1.238125	-0.682500
521.184021	196.298004	959.164001	2.336250	4.606875	2.200625
511.485016	188.917007	962.640991	4.746875	2.340625	2.218125
519.536987	208.803009	975.390015	6.199375	0.468125	2.292500
553.453003	121.084999	1096.170044	8.185625	1.798125	3.867500
595.116028	94.245003	1365.363037	17.850000	2.743125	-3.876250
648.125000	-13.786000	1673.839966	47.201874	28.065624	-8.579375
587.674011	9.333000	1518.046021	39.466873	50.645000	-13.623750
567.544006	8.662000	1473.028076	30.008125	42.148750	3.915625
630.252014	92.659004	1444.358032	30.309999	38.097500	12.512500
510.997009	95.831001	1253.916016	19.740000	33.101250	0.345625
578.218994	287.859009	1260.931030	7.901250	28.367500	-11.375000
518.744019	418.886993	1084.396973	-9.021250	35.949375	-7.573125
449.020996	414.800018	965.934998	-7.586250	47.315624	-1.330000
359.838989	468.907013	870.713989	-3.898125	42.455002	7.463750
316.773010	475.007019	775.554016	-12.521250	18.681250	20.028749
328.912018	478.057007	684.968994	-18.777500	20.278126	21.148750
213.072998	422.181000	586.942017	-14.905625	9.174375	32.300625
262.605011	383.019012	581.268982	-11.698750	-5.722500	40.280624
289.506012	385.946991	576.937988	-15.028125	17.141251	36.443748
208.498001	338.916016	702.963989	-17.447500	39.156250	25.532499
214.415009	302.498993	755.119019	-10.871875	30.187500	10.141250
165.432007	303.048004	853.695007	-2.572500	19.718124	4.663750
166.529999	218.563004	914.512024	6.715625	7.599375	8.233750
187.453003	272.609009	938.973022	9.821875	0.210000	0.280000
157.380005	248.697006	1038.525024	15.544375	-10.749375	2.528750
266.692017	262.299988	1052.982056	10.018750	-11.908750	4.361875
227.225006	223.809006	1082.140015	7.870625	-4.493125	0.148750
300.485992	282.429993	1122.948975	4.764375	-4.313750	-1.872500
277.244995	227.835007	1132.708984	2.603125	1.474375	-2.988125
262.299988	236.497009	1118.008057	1.478750	0.739375	0.892500
256.566010	237.900009	1102.514038	2.633750	-1.518125	2.931250
249.794998	237.656006	1062.558960	3.285625	5.328750	1.255625
234.727997	250.587997	1073.112061	3.438750	3.106250	0.756875
232.776001	253.699005	1058.838013	5.311250	-1.500625	1.627500
225.882996	233.386002	1053.592041	6.396250	-2.786875	0.555625
250.039001	272.975006	1072.441040	8.706250	-3.281250	1.452500
491.110992	185.623001	984.418030	-1.680000	2.983750	0.153125
499.895020	165.798004	975.450989	-2.878750	4.698750	-2.393125
451.644012	146.643997	990.273987	-6.081250	1.076250	-3.294375
495.929993	150.242996	1042.307007	-2.366875	-1.990625	-2.288125
477.020020	162.382004	1011.014038	0.831250	-0.936250	-3.469375
469.639008	123.647003	1132.037964	3.045000	-1.990625	0.984375
481.656006	64.355003	1293.627075	9.598750	-2.773750	-0.988750
473.299011	-60.024002	1513.958984	8.868125	4.480000	4.252500
610.731995	-87.901001	1727.885986	21.437500	21.345625	12.525625
544.242004	-167.994003	1553.304077	20.094376	41.190624	14.406875
525.942017	7.259000	1493.036011	17.819374	44.966251	20.689375
493.977997	8.906000	1360.360962	7.026250	45.465000	22.041250
498.187012	122.792999	1128.378052	1.128750	46.221874	8.439375
496.540009	200.445999	984.174011	18.007500	44.738750	7.109375
509.716003	242.292007	950.867981	2.091250	76.278122	7.516250
356.239990	312.869019	971.303040	-25.134375	104.286873	6.790000
233.264008	205.813995	983.075989	-30.362499	83.300003	10.434375
191.113007	290.299011	948.916016	-25.265625	46.528126	23.458750
215.635010	284.748016	900.481995	-20.658751	25.825624	36.448124
210.328003	162.382004	798.184998	-9.848125	32.751251	41.615002
164.578003	326.411011	853.939026	-6.527500	16.126249	47.140625
176.900009	305.427002	681.369995	-7.538125	15.780625	46.147499
75.212997	254.613998	703.513000	-13.601875	16.716875	13.877500
29.036001	289.811005	762.622009	-19.250000	8.470000	7.971250
31.598000	261.080017	832.345032	-23.563749	3.364375	-1.973125
-50.751999	201.971008	941.473999	-5.770625	-3.307500	-18.326876
-39.040001	169.335999	1056.581055	11.213125	-16.760626	-5.101250
93.147003	158.539001	1024.067993	13.571250	-17.355625	-1.876875
67.161003	161.100998	1128.134033	10.447500	-6.890625	-1.789375
76.311005	129.686005	1135.636963	10.386250	-8.951250	-7.848750
101.870003	141.641998	1136.307983	7.936250	-7.061250	-5.477500
113.947998	144.996994	1151.924072	4.340000	-4.799375	-5.836250
100.833000	114.314003	1130.269043	1.636250	-3.543750	-3.158750
126.575005	117.120003	1119.166992	-2.148125	-8.303750	-2.436875
113.216003	87.351997	1114.958008	-3.618125	-5.468750	-1.141875
131.455002	90.219002	1117.031982	-4.921875	-3.745000	-1.566250
126.758003	58.681999	1099.219971	-4.348750	-2.681875	-3.552500
125.050003	67.771004	1096.901978	-2.222500	0.656250	-4.038125
405.710999	195.078003	1062.802979	1.277500	-1.128750	-1.089375
385.398010	192.760010	1044.807983	0.910000	0.595000	-3.355625
400.403992	195.444000	1043.832031	1.019375	-0.175000	-5.403125
408.639008	200.628998	1036.695068	1.561875	1.964375	-5.490625
393.938019	208.925003	1040.354980	3.626875	0.695625	-3.241875
414.251007	199.287003	1041.148071	0.997500	1.977500	-1.596875
360.449005	122.366005	1133.014038	0.818125	1.540000	-1.439375
386.618011	68.502998	1230.187012	8.938125	-1.067500	-2.751875
349.834991	-44.164001	1389.763062	16.541876	-0.516250	1.868125
384.360992	-32.695999	1412.333008	34.549374	-4.178125	13.811875
462.746002	-27.389000	1368.108032	36.334373	0.840000	16.821875
435.601013	50.630001	1385.066040	21.608126	7.476875	13.282500
507.764008	110.410004	1352.004028	9.174375	28.223125	9.253125
479.765015	158.112000	1308.389038	2.598750	42.940624	3.635625
423.035004	211.609009	1279.536011	7.840000	41.781250	-3.591875
514.718018	291.519012	1175.165039	2.213750	41.549374	-5.915000
474.885010	298.106995	1094.218018	4.655000	68.083748	-9.953125
386.557007	388.936005	1027.849976	-3.635625	74.081879	-4.392500
259.981995	417.484009	1036.572998	-16.266251	60.965626	3.871875
197.884003	358.619019	955.992004	-15.846250	53.436249	28.840000
231.983002	368.867004	1028.703979	-7.988750	28.393749	34.330624
147.193008	338.794006	959.225037	-6.081250	14.441875	30.279375
212.219009	270.778992	835.333984	-2.502500	37.616249	16.450001
74.542000	272.791992	834.968018	-1.745625	51.642502	-0.310625
32.513000	269.010010	788.486023	0.135625	44.611874	-3.570000
27.023001	319.091003	766.465027	-2.082500	41.085625	-7.927500
-49.532001	316.955994	746.640015	-2.218125	33.442501	-6.470625
-55.693001	338.244995	769.270996	-7.879375	17.023125	-0.586250
-156.098999	256.444000	826.794006	-5.311250	10.290000	2.922500
-25.193001	296.154999	896.273010	-7.546875	5.744375	4.707500
-132.003998	247.660004	977.525024	-1.596875	-6.286875	4.956875
-33.123001	257.907990	1011.929016	4.519375	-7.805000	7.061250
-81.129997	150.182007	1030.961060	8.723750	-9.598750	4.681250
-24.705000	208.376007	1091.411987	11.055625	-14.822500	1.601250
0.061000	188.977997	1138.260010	13.418125	-15.050000	0.157500
-3.904000	217.770004	1151.070068	8.032500	-17.898125	1.373750
36.539001	221.125000	1145.579956	1.452500	-9.082500	1.614375
7.076000	214.292999	1131.550049	-0.555625	-4.449375	0.402500
